2025-08-01 09:19:21.560853	Isotope: Na23	Mass: 22.98976928	Wavenumber: 0.0 cm⁻¹	Beam energy: 19930.0 eV	Anticollinear
Scan Start: 0.0 V	Scan Stop: 3.0 V	Scan Step Size: 0.01 V	Scan Dwell time: 100 ms
AOut (V)	AIn (V)	DMM Read (V)	Ion/Photon Count	Time (s)	Frequency(THz)	Power(mW)
0.0	0	146721	0.10329318046569824	0	0
0.01	0	146721	0.20937657356262207	0	0
0.02	0	146722	0.31403088569641113	0	0
0.03	0	146722	0.4186060428619385	0	0
0.04	0	146722	0.5232741832733154	0	0
0.05	0	146722	0.6274302005767822	0	0
0.06	0	146722	0.7316033840179443	0	0
0.07	0	146722	0.8367559909820557	0	0
0.08	0	146722	0.9409868717193604	0	0
0.09	0	146722	1.045659065246582	0	0
0.10	0	146722	1.1498479843139648	0	0
0.11	0	146722	1.254368782043457	0	0
0.12	0	146723	1.3584949970245361	0	0
0.13	0	146723	1.4627926349639893	0	0
0.14	0	146723	1.5671508312225342	0	0
0.15	0	146723	1.6718356609344482	0	0
0.16	0	146723	1.7762584686279297	0	0
0.17	0	146723	1.880387544631958	0	0
0.18	0	146723	1.9860405921936035	0	0
0.19	0	146723	2.090264081954956	0	0
0.20	0	146723	2.1944096088409424	0	0
0.21	0	146724	2.2985997200012207	0	0
0.22	0	146724	2.4026269912719727	0	0
0.23	0	146724	2.506835699081421	0	0
0.24	0	146724	2.6110751628875732	0	0
0.25	0	146724	2.715104103088379	0	0
0.26	0	146724	2.819254159927368	0	0
0.27	0	146724	2.923866033554077	0	0
0.28	0	146724	3.0280227661132812	0	0
0.29	0	146724	3.132103681564331	0	0
0.30	0	146724	3.2362866401672363	0	0
0.31	0	146725	3.341181755065918	0	0
0.32	0	146725	3.445190668106079	0	0
0.33	0	146725	3.5492799282073975	0	0
0.34	0	146725	3.6535685062408447	0	0
0.35	0	146725	3.7577991485595703	0	0
0.36	0	146725	3.8617029190063477	0	0
0.37	0	146725	3.966120958328247	0	0
0.38	0	146725	4.071329355239868	0	0
0.39	0	146725	4.175726413726807	0	0
0.40	0	146725	4.279950380325317	0	0
0.41	0	146726	4.383967399597168	0	0
0.42	0	146726	4.487722158432007	0	0
0.43	0	146726	4.591766595840454	0	0
0.44	0	146726	4.695660352706909	0	0
0.45	0	146726	4.800299882888794	0	0
0.46	0	146726	4.904333591461182	0	0
0.47	0	146726	5.00797176361084	0	0
0.48	0	146726	5.1148035526275635	0	0
0.49	0	146726	5.218994379043579	0	0
0.50	0	146726	5.323023319244385	0	0
0.51	0	146727	5.427239894866943	0	0
0.52	0	146727	5.531418323516846	0	0
0.53	0	146727	5.635479688644409	0	0
0.54	0	146727	5.740170001983643	0	0
0.55	0	146727	5.844332933425903	0	0
0.56	0	146727	5.94852614402771	0	0
0.57	0	146727	6.0522260665893555	0	0
0.58	0	146727	6.156393051147461	0	0
0.59	0	146727	6.26160740852356	0	0
0.60	0	146728	6.366055488586426	0	0
0.61	0	146728	6.470401048660278	0	0
0.62	0	146728	6.574586629867554	0	0
*	*	*	*	*	*
